% f656.txt
% Date Wed, Jun 23, 2021 3:50 PM
% Ascending Sine seq
% Response spectrum
% Stim level (V pk) 1.000, 0 dB filter gain, 120.0 dB attenuation
% Freq [Hz]	Ch0 Mag [dB]	Ch0 Phase [cyc]	Ch1 Mag [dB]	Ch1 Phase [cyc]	Ch2 Mag [dB]	Ch2 Phase [cyc]	Ch3 Mag [dB]	Ch3 Phase [cyc]
%%end
100.000000	-124.062338	-0.141923	-10.278229	0.466033	-63.584162	-0.277391	-16.300357	-0.266495
200.000000	-121.176505	0.163478	-16.735609	0.308141	-60.539047	-0.481175	-18.424847	-0.254873
300.000000	-105.235993	-0.148012	-17.733560	0.282446	-41.391976	-0.057231	-18.458138	-0.246458
400.000000	-116.255266	0.142119	-18.119407	0.264026	-54.875271	0.492138	-18.411121	-0.240696
500.000000	-114.652039	0.229587	-18.398582	0.253724	-56.323921	0.362254	-18.315599	-0.236552
600.000000	-117.620997	-0.119384	-18.166241	0.255979	-59.300211	0.317215	-18.199106	-0.233503
700.000000	-122.303654	-0.353484	-17.381054	0.240369	-60.381998	0.344684	-18.102226	-0.230984
800.000000	-115.304604	0.048797	-17.721695	0.222223	-58.138296	0.391029	-17.991251	-0.228558
900.000000	-109.408458	0.013402	-17.762912	0.214994	-58.063694	0.322014	-17.876969	-0.226610
1000.000000	-122.305912	0.361758	-18.104742	0.202059	-56.747775	0.342802	-17.762828	-0.224966
1100.000001	-118.503673	0.099961	-17.824175	0.204001	-57.904349	0.331745	-17.650277	-0.223558
1200.000001	-117.303792	0.454165	-17.675075	0.199407	-59.327915	0.309080	-17.539661	-0.222350
1300.000001	-117.209499	-0.140522	-17.504904	0.194344	-56.941897	0.350102	-17.431057	-0.221312
1400.000001	-117.482137	-0.143642	-17.431915	0.193154	-57.451429	0.319479	-17.326244	-0.220428
1500.000001	-116.199887	-0.076561	-16.760950	0.193781	-60.068890	0.342700	-17.226824	-0.219710
1600.000001	-117.694989	0.288596	-16.307078	0.183943	-59.369442	0.309931	-17.131150	-0.219043
1700.000001	-118.155078	0.137340	-15.867586	0.181675	-58.142251	0.304805	-17.035339	-0.218501
1800.000001	-117.513273	-0.112257	-15.309850	0.173788	-58.455280	0.296555	-16.944927	-0.218029
1900.000001	-116.104713	-0.412356	-14.771750	0.167756	-56.653865	0.296299	-16.855591	-0.217637
2000.000001	-157.985608	0.005386	-14.135845	0.159697	-60.062016	0.178111	-16.769579	-0.217318
2100.000001	-117.980230	-0.020929	-13.883753	0.146553	-56.955055	0.316280	-16.686562	-0.217062
2200.000001	-138.969972	-0.151060	-13.359185	0.155844	-56.592742	0.301183	-16.606338	-0.216866
2300.000001	-116.814778	0.006026	-12.052372	0.152996	-57.672577	0.311482	-16.522890	-0.216709
2400.000001	-121.067772	0.218129	-10.630743	0.146228	-56.437289	0.306059	-16.450008	-0.216598
2500.000001	-118.079396	-0.050199	-9.009625	0.135653	-55.921329	0.274425	-16.376003	-0.216524
2600.000001	-122.567100	0.181879	-6.912224	0.120528	-55.903540	0.289340	-16.303044	-0.216503
2700.000001	-129.408034	-0.059972	-4.077657	0.092318	-56.370133	0.287470	-16.228320	-0.216563
2800.000001	-118.166304	-0.391650	-0.640013	0.024810	-55.833358	0.294490	-16.155137	-0.216854
2900.000001	-112.308332	0.329827	0.531228	-0.098727	-57.129702	0.292176	-16.111158	-0.217320
3000.000001	-112.912280	0.103754	-2.453046	-0.196809	-57.125181	0.276747	-16.075553	-0.217153
3100.000001	-124.624889	-0.142513	-6.373060	-0.232364	-56.389335	0.261969	-16.019505	-0.216989
3200.000001	-116.061765	0.313275	-8.722986	-0.266800	-56.750999	0.272048	-15.962541	-0.216972
3300.000002	-117.360729	-0.465950	-11.587582	-0.282654	-57.456724	0.264194	-15.905274	-0.217019
3400.000002	-121.102723	-0.035591	-13.977591	-0.289635	-56.941801	0.273531	-15.850164	-0.217111
3500.000002	-118.280230	0.222300	-16.120827	-0.293171	-56.425578	0.273450	-15.797690	-0.217230
3600.000002	-115.132823	0.173985	-18.156665	-0.292142	-55.818310	0.271075	-15.746532	-0.217366
3700.000002	-119.984580	0.354836	-20.211839	-0.286191	-55.335874	0.257383	-15.697574	-0.217518
3800.000002	-115.895385	0.099981	-22.370443	-0.272213	-56.322011	0.261959	-15.649823	-0.217682
3900.000002	-124.272359	0.230669	-24.577248	-0.237025	-56.157123	0.268757	-15.603315	-0.217858
4000.000002	-110.739440	0.095929	-25.357888	-0.164540	-54.180277	0.272153	-15.557990	-0.218046
4100.000002	-118.256027	0.119506	-21.596901	-0.106164	-55.862179	0.242761	-15.513880	-0.218248
4200.000002	-126.779109	0.213663	-17.252777	-0.142708	-56.429512	0.251825	-15.472041	-0.218468
4300.000002	-115.430532	-0.032484	-16.958086	-0.211673	-56.260795	0.252537	-15.432365	-0.218671
4400.000002	-114.337579	0.207196	-18.392245	-0.249559	-55.647971	0.256289	-15.393376	-0.218865
4500.000002	-113.980270	0.281219	-20.014856	-0.268188	-56.337476	0.242952	-15.354427	-0.219072
4600.000002	-119.266483	0.009023	-21.531928	-0.275534	-56.196082	0.255671	-15.316243	-0.219282
4800.000002	-117.908625	0.336258	-23.929941	-0.272480	-56.052930	0.254162	-15.242232	-0.219729
4900.000002	-118.516671	0.354678	-24.888684	-0.269285	-55.486590	0.253961	-15.207066	-0.219955
5000.000002	-112.643024	0.154629	-25.879944	-0.262095	-55.045657	0.252563	-15.172730	-0.220186
5100.000002	-114.826772	0.165671	-26.711036	-0.252315	-56.439889	0.237551	-15.138645	-0.220420
5300.000002	-114.381822	0.211933	-27.490409	-0.227483	-56.493347	0.248941	-15.073050	-0.220898
5400.000002	-112.980325	0.106431	-28.267680	-0.219296	-55.244781	0.256660	-15.041569	-0.221141
5500.000003	-117.245164	0.174846	-28.419066	-0.200159	-56.062740	0.249099	-15.010995	-0.221380
5700.000003	-111.388047	0.207112	-28.288168	-0.177146	-56.360306	0.236830	-14.946986	-0.221917
5800.000003	-109.893064	0.091827	-27.439915	-0.177230	-55.663157	0.242408	-14.929213	-0.222180
5900.000003	-118.023066	0.131864	-27.777572	-0.172737	-55.487312	0.230106	-14.897869	-0.222382
6100.000003	-106.865856	0.170609	-27.875223	-0.166780	-54.752128	0.229358	-14.841664	-0.222877
6200.000003	-112.415873	0.099639	-28.221832	-0.161392	-55.599072	0.218990	-14.813996	-0.223129
6400.000003	-109.145294	0.173952	-28.606714	-0.138845	-55.176842	0.223462	-14.762273	-0.223631
6600.000003	-115.261849	0.064806	-28.524265	-0.110536	-54.884642	0.215691	-14.711510	-0.224146
6700.000003	-119.882337	0.189192	-28.202060	-0.093142	-55.152613	0.221542	-14.687639	-0.224400
6900.000003	-125.833270	-0.039169	-26.657181	-0.062493	-55.216644	0.219276	-14.639927	-0.224922
7100.000003	-114.433164	0.307093	-23.884456	-0.052462	-55.524794	0.220367	-14.597671	-0.225445
7200.000003	-114.656404	0.204087	-22.943787	-0.062756	-55.007163	0.205267	-14.575082	-0.225695
7400.000003	-110.889381	0.208149	-22.889758	-0.081550	-55.201780	0.218011	-14.532125	-0.226207
7600.000004	-112.581751	0.244592	-21.771100	-0.054343	-55.025753	0.208003	-14.489800	-0.226721
7800.000004	-110.199411	0.302608	-20.496508	-0.053418	-55.311130	0.200838	-14.450546	-0.227247
8000.000004	-112.274914	0.217242	-18.549274	-0.039278	-54.573004	0.192863	-14.411175	-0.227755
8200.000004	-108.080535	0.309642	-16.118202	-0.039910	-54.314673	0.198626	-14.373153	-0.228272
8400.000004	-106.815281	0.334662	-13.228788	-0.044182	-55.280520	0.196980	-14.336409	-0.228795
8600.000004	-105.809792	0.346475	-9.331262	-0.067459	-55.032615	0.189489	-14.300330	-0.229326
8800.000004	-99.421242	0.318121	-5.471905	-0.142725	-55.143260	0.187705	-14.266910	-0.229866
9100.000004	-97.835823	0.228774	-6.080812	-0.282089	-54.758218	0.185029	-14.219802	-0.230605
9300.000004	-98.751950	0.195008	-7.909927	-0.324407	-54.383378	0.187796	-14.187093	-0.231100
9500.000004	-99.915826	0.185633	-9.290076	-0.346595	-55.408980	0.188442	-14.155366	-0.231608
9700.000004	-99.887717	0.164141	-10.104753	-0.359678	-54.899555	0.175812	-14.125154	-0.232115
10000.000005	-99.850676	0.186595	-10.502004	-0.373160	-54.518326	0.173219	-14.080698	-0.232879
10200.000005	-99.022866	0.155656	-10.188401	-0.381521	-55.273099	0.167656	-14.051958	-0.233384
10500.000005	-98.772284	0.153104	-9.179424	-0.400312	-55.114568	0.176438	-14.010283	-0.234145
10800.000005	-96.576701	0.120984	-7.179499	-0.425315	-54.449039	0.162071	-13.969741	-0.234918
11000.000005	-94.840393	0.094087	-4.996327	-0.454233	-54.877952	0.156813	-13.943435	-0.235435
11300.000005	-91.854183	-0.042002	-0.423915	0.424967	-54.417996	0.163549	-13.907139	-0.236297
11600.000005	-97.015835	-0.264577	-3.116768	0.232333	-54.575932	0.139311	-13.879139	-0.236993
11900.000005	-106.624911	-0.367899	-9.357756	0.164715	-54.728112	0.145194	-13.842943	-0.237683
12200.000006	-113.600621	0.399560	-13.783542	0.134594	-54.605304	0.142895	-13.808404	-0.238419
12500.000006	-106.721150	0.320896	-17.190056	0.117074	-54.632172	0.132178	-13.775409	-0.239161
12800.000006	-104.829032	0.298006	-19.963910	0.106969	-54.531034	0.132379	-13.743942	-0.239903
13100.000006	-105.930125	0.294581	-21.917456	0.108406	-54.711099	0.127558	-13.713331	-0.240646
13400.000006	-104.205865	0.272162	-22.306549	0.105702	-55.326373	0.120520	-13.684070	-0.241387
13800.000006	-101.741780	0.246492	-22.752773	0.064808	-54.692003	0.121422	-13.646247	-0.242373
14100.000006	-102.842228	0.278468	-23.567786	0.034725	-55.005597	0.107489	-13.619005	-0.243108
14500.000007	-101.682586	0.273435	-24.958432	-0.003644	-54.604205	0.104608	-13.583925	-0.244088
14800.000007	-101.129716	0.246388	-25.642429	-0.024751	-55.355490	0.103075	-13.558322	-0.244813
15200.000007	-99.705905	0.227395	-27.347512	-0.057391	-55.240001	0.105027	-13.525566	-0.245796
15600.000007	-99.339707	0.237733	-28.574477	-0.061884	-55.663762	0.092094	-13.494256	-0.246772
16000.000007	-98.575444	0.239608	-28.508109	-0.064719	-55.271869	0.089088	-13.463883	-0.247739
16400.000008	-98.216548	0.259331	-27.834339	-0.079070	-55.374440	0.084592	-13.434879	-0.248709
16800.000008	-96.832077	0.231763	-27.618001	-0.111447	-55.503212	0.073297	-13.406808	-0.249674
17200.000008	-96.980838	0.238934	-28.281290	-0.126163	-56.020176	0.071072	-13.379491	-0.250642
17700.000008	-96.021216	0.225288	-28.148738	-0.140647	-55.842394	0.067719	-13.346521	-0.251847
18100.000008	-95.725860	0.250025	-28.321333	-0.167037	-55.702258	0.056040	-13.321631	-0.252810
18600.000009	-95.201699	0.233663	-29.021826	-0.170813	-56.076166	0.048353	-13.291162	-0.254011
19000.000009	-95.003168	0.217603	-29.422643	-0.186016	-56.196982	0.039543	-13.267665	-0.254970
19500.000009	-94.588719	0.219519	-30.182561	-0.183050	-55.923432	0.043030	-13.239229	-0.256169
20000.000009	-94.404639	0.219353	-30.204757	-0.173220	-56.486526	0.038361	-13.211843	-0.257365
